Black Body Radiation Experiment Tue, Oct 30, 2018 3:13 PM
Sensor Position (Degrees)	Light Intensity (Volts)
0.00000	-0.01502
0.00000	-0.01099
0.00000	0.00237
0.00000	-0.00874
0.00000	0.00124
0.00000	-0.01985
0.00000	-0.01743
0.00000	-0.02033
0.00000	0.00221
0.00000	-0.01373
0.00000	-0.02612
0.00000	-0.02596
0.00000	-0.01083
0.00000	-0.01888
0.00000	-0.01003
0.00000	-0.02532
0.00000	-0.02789
0.00000	-0.00439
0.00000	0.00559
0.00000	-0.00874
0.00000	-0.00906
0.00000	-0.02049
0.00000	0.00639
0.00000	-0.00472
0.00000	-0.01872
0.00000	-0.01502
0.00000	-0.01357
0.00000	-0.00520
0.00000	-0.02435
0.00000	-0.00214
0.02070	-0.00311
0.02070	-0.01711
0.02070	-0.02628
0.03104	-0.02306
0.03104	-0.00922
0.03104	-0.00311
0.03104	-0.01437
0.04139	-0.02789
0.04139	-0.00777
0.04139	-0.00681
0.05174	-0.01824
0.05174	-0.02129
0.05174	-0.01727
0.06209	-0.02451
0.06209	-0.01453
0.07244	-0.00938
0.07244	-0.00230
0.08279	-0.02323
0.10348	-0.02145
0.11383	-0.01647
0.14487	-0.01502
0.18627	-0.01373
0.23801	-0.01727
0.33114	-0.00874
0.42428	-0.03160
0.52776	-0.01904
0.68298	-0.01824
0.81751	-0.01985
0.93134	-0.02113
1.06586	-0.02387
1.23144	-0.00681
1.39701	-0.02097
1.53153	-0.02129
1.66606	-0.01550
1.80059	-0.01308
1.90407	-0.01453
1.97651	-0.02097
2.03859	-0.03417
2.10068	-0.01405
2.16277	-0.03192
2.19382	-0.01985
2.22486	-0.02419
2.24556	-0.03095
2.26625	-0.01260
2.27660	-0.00343
2.29730	-0.00954
2.31800	-0.00311
2.34904	-0.00262
2.38009	0.00365
2.43183	-0.00970
2.49392	-0.00954
2.56635	-0.02966
2.63879	-0.02210
2.72158	-0.02226
2.82506	-0.02403
2.92854	-0.01904
3.02167	-0.01325
3.13550	-0.00649
3.25968	-0.01727
3.36316	-0.01840
3.48734	-0.02178
3.60117	-0.02693
3.72535	-0.01920
3.83918	-0.03514
3.94266	-0.01389
4.05649	-0.02290
4.13928	-0.00858
4.21172	-0.00552
4.28415	-0.01614
4.35659	-0.01131
4.42903	-0.01131
4.50147	-0.01727
4.55321	-0.02419
4.60495	-0.01743
4.66704	-0.02001
4.71878	-0.01647
4.78087	-0.02773
4.86365	-0.02113
4.94644	-0.03562
5.02922	-0.00777
5.13271	-0.00761
5.26723	-0.00568
5.40176	-0.00053
5.52594	-0.00568
5.65012	-0.01952
5.77429	-0.03176
5.88812	-0.01791
5.99161	-0.01679
6.08474	-0.01308
6.14683	-0.00842
6.19857	-0.01534
6.23996	-0.00407
6.28136	-0.01711
6.30205	-0.01856
6.34344	-0.02226
6.38484	-0.01952
6.44693	-0.00858
6.49867	0.00076
6.57110	0.00060
6.64354	-0.00681
6.72633	-0.01437
6.80911	-0.02773
6.90225	-0.02644
6.99538	-0.02564
7.10921	-0.00407
7.20234	-0.00729
7.29548	-0.00616
7.39896	0.00414
7.50244	-0.01341
7.58523	-0.00021
7.67836	-0.01260
7.76115	-0.02709
7.83358	-0.01920
7.89567	-0.01791
7.96811	-0.00922
8.01985	0.00172
8.08194	-0.00182
8.14403	-0.01003
8.20612	-0.01292
8.25786	-0.00826
8.31995	-0.00584
8.38204	-0.01164
8.45448	-0.02451
8.52691	-0.03015
8.60970	-0.02210
8.68214	0.00076
8.75457	-0.00101
8.84771	-0.00906
8.94084	0.00382
9.03398	-0.00600
9.11676	-0.01003
9.19955	0.00092
9.28233	-0.00021
9.36512	-0.00858
9.43755	0.00205
9.48930	0.00526
9.53069	-0.00278
9.58243	0.00478
9.62382	-0.00182
9.66522	-0.00649
9.70661	-0.00117
9.75835	-0.00037
9.79974	-0.00568
9.84113	-0.00133
9.88253	-0.00681
9.92392	-0.00150
9.95496	-0.01598
10.00671	-0.00826
10.05845	-0.01711
10.11019	-0.01083
10.15158	-0.01421
10.20332	0.00285
10.26541	-0.01518
10.32750	-0.01647
10.38959	-0.00858
10.46203	-0.02226
10.52412	-0.01180
10.58620	-0.01791
10.65864	-0.00745
10.73108	-0.01164
10.81386	-0.00665
10.89665	-0.00488
10.96909	-0.01131
11.05187	-0.00101
11.13466	0.01170
11.21744	0.00623
11.30023	-0.00665
11.38302	0.00430
11.45545	0.01540
11.53824	0.01959
11.66242	-0.00117
11.76590	0.00462
11.84868	-0.00214
11.94182	0.01653
12.03495	0.00494
12.13843	0.00221
12.24192	0.00349
12.33505	0.01444
12.43853	0.03118
12.54201	0.01476
12.67654	0.01959
12.78002	0.01396
12.88350	0.02876
12.98699	0.00237
13.09047	0.00768
13.18360	0.00752
13.26639	0.00011
13.36987	0.00430
13.47335	0.00768
13.58718	0.00768
13.69066	0.00913
13.77345	0.02571
13.85623	0.01895
13.93902	0.02973
14.02181	0.02522
14.10459	0.01685
14.17703	0.01396
14.23912	0.02184
14.29086	0.02748
14.34260	0.04679
14.38399	0.03923
14.43573	0.02844
14.47713	0.03440
14.50817	0.04068
14.54956	0.05017
14.58061	0.07866
14.63235	0.07560
14.68409	0.06305
14.71513	0.07045
14.75653	0.07995
14.78757	0.10023
14.83931	0.09653
14.90140	0.12132
14.94280	0.12695
15.00488	0.11987
15.07732	0.12035
15.13941	0.12679
15.21185	0.15850
15.27394	0.18167
15.35672	0.20823
15.44986	0.23656
15.53264	0.27567
15.63612	0.32106
15.72926	0.34086
15.82239	0.39929
15.91553	0.45724
16.02936	0.49554
16.13284	0.53900
16.27771	0.61578
16.40189	0.68741
16.55711	0.73650
16.70199	0.80700
16.80547	0.86494
16.90895	0.94687
17.02278	1.00916
17.14696	1.04618
17.26079	1.08980
17.35392	1.11185
17.48845	1.13986
17.62298	1.14775
17.71611	1.14324
17.80925	1.13761
17.93342	1.14002
18.04725	1.11620
18.15074	1.10332
18.25422	1.06163
18.35770	1.04168
18.47153	1.00369
18.59571	0.96635
18.70954	0.91468
18.80267	0.87943
18.88546	0.84016
18.96824	0.79171
19.06138	0.74422
19.14416	0.69626
19.21660	0.64974
19.28904	0.59341
19.36147	0.54045
19.41322	0.50327
19.45461	0.45772
19.48565	0.42714
19.52705	0.37917
19.55809	0.34279
19.57879	0.32187
19.60983	0.29080
19.64088	0.27664
19.68227	0.25411
19.71331	0.23769
19.74436	0.21998
19.78575	0.20405
19.81680	0.19149
19.84784	0.17491
19.88923	0.17379
19.93063	0.15029
19.97202	0.13983
20.01341	0.14578
20.05480	0.10747
20.10655	0.12244
20.15829	0.12244
20.19968	0.10490
20.24107	0.09460
20.28246	0.08381
20.33421	0.09138
20.38595	0.08735
20.44804	0.07480
20.49978	0.07834
20.56187	0.06659
20.61361	0.08220
20.67570	0.07287
20.74813	0.05838
20.81022	0.08832
20.88266	0.08027
20.94475	0.07947
21.01719	0.08413
21.07928	0.07593
21.14136	0.09122
21.21380	0.09444
21.28624	0.09862
21.35868	0.08639
21.43111	0.07415
21.50355	0.08880
21.58634	0.08494
21.64843	0.08768
21.72086	0.08140
21.80365	0.08011
21.87609	0.07077
21.94852	0.06192
22.01061	0.06321
22.09340	0.07029
22.17618	0.08059
22.26932	0.06257
22.35210	0.06852
22.42454	0.07979
22.50733	0.08172
22.57976	0.07142
22.64185	0.08864
22.71429	0.06627
22.77638	0.06353
22.83847	0.05774
22.91091	0.05902
22.97300	0.05629
23.04543	0.05983
23.11787	0.07560
23.19031	0.07995
23.27309	0.07432
23.35588	0.07077
23.43866	0.06401
23.53180	0.07448
23.62493	0.06192
23.71807	0.07335
23.81120	0.08349
23.89398	0.07126
23.97677	0.08365
24.04921	0.08478
24.10095	0.07931
24.16304	0.07432
24.20443	0.07753
24.24582	0.07480
24.26652	0.06643
24.28722	0.07094
24.31826	0.06578
24.33896	0.08172
24.34931	0.08558
24.37000	0.08285
24.38035	0.08188
24.40105	0.07609
24.41139	0.07721
24.43209	0.07335
24.45279	0.06691
24.47348	0.08558
24.49418	0.07979
24.52522	0.08043
24.54592	0.08590
24.57697	0.09894
24.60801	0.09315
24.63905	0.09508
24.67010	0.07383
24.71149	0.07255
24.74254	0.07319
24.78393	0.06401
24.82532	0.07979
24.87706	0.09524
24.92880	0.08687
24.97020	0.08542
25.02194	0.08703
25.07368	0.08252
25.12542	0.07319
25.16681	0.05983
25.22890	0.07705
25.28064	0.07496
25.33238	0.08655
25.38413	0.08542
25.43587	0.08912
25.49796	0.09106
25.54970	0.10087
25.62213	0.09637
25.69457	0.08108
25.75666	0.07689
25.83945	0.07802
25.92223	0.07866
26.02571	0.07383
26.11885	0.09556
26.23268	0.08993
26.34651	0.09202
26.46034	0.09089
26.57417	0.09862
26.69835	0.08912
26.84322	0.07963
26.95705	0.08252
27.08123	0.08397
27.20541	0.08027
27.32959	0.08623
27.45376	0.08751
27.58829	0.07560
27.72282	0.09621
27.85734	0.08961
27.98152	0.08816
28.11605	0.10506
28.27127	0.09218
28.40580	0.08655
28.56102	0.09717
28.69555	0.08365
28.81973	0.08671
28.94390	0.10667
29.06808	0.08510
29.17156	0.08848
29.25435	0.10828
29.32679	0.10940
29.38888	0.10071
29.46131	0.10393
29.52340	0.10715
29.57514	0.11230
29.62689	0.10409
29.67863	0.10023
29.72002	0.10796
29.76141	0.10152
29.80280	0.07287
29.85455	0.10393
29.90629	0.10554
29.95803	0.11005
30.02012	0.10103
30.08221	0.11230
30.14430	0.11971
30.20638	0.11874
30.26847	0.10683
30.34091	0.11584
30.40300	0.10248
30.47544	0.10039
30.55822	0.07914
30.64101	0.10763
30.72379	0.10281
30.81693	0.11069
30.92041	0.10313
31.02389	0.12341
31.11703	0.13049
31.22051	0.11504
31.32399	0.11085
31.41712	0.11552
31.49991	0.10409
31.57235	0.10619
31.63444	0.10200
31.69652	0.11118
31.75861	0.09749
31.83105	0.11954
31.89314	0.11938
31.95523	0.10908
32.02767	0.11938
32.10010	0.13339
32.18289	0.11906
32.26568	0.12518
32.34846	0.12663
32.41055	0.13902
32.48299	0.12663
32.55542	0.13097
32.63821	0.11407
32.71065	0.11295
32.78309	0.09605
32.86587	0.09830
32.95900	0.09395
33.04179	0.11681
33.11423	0.11101
33.19701	0.12019
33.27980	0.12293
33.36258	0.12083
33.43502	0.12276
33.51781	0.12808
33.60059	0.12405
33.67303	0.12067
33.73512	0.13210
33.79721	0.13435
33.85930	0.11745
33.93174	0.12260
33.99382	0.11810
34.05591	0.12003
34.12835	0.11890
34.19044	0.12293
34.25253	0.11794
34.32497	0.12952
34.38706	0.13162
34.44914	0.13339
34.51123	0.12405
34.57332	0.13950
34.62506	0.13049
34.68715	0.12373
34.75959	0.14449
34.82168	0.11681
34.88377	0.12470
34.95621	0.11681
35.01830	0.12373
35.08038	0.11616
35.13213	0.13484
35.19421	0.13097
35.25630	0.12840
35.32874	0.13451
35.40118	0.13661
35.46327	0.13677
35.52536	0.14707
35.59779	0.14643
35.67023	0.15721
35.75302	0.14433
35.84615	0.12502
35.93929	0.14385
36.03242	0.12115
36.14625	0.12582
36.24973	0.11938
36.37391	0.12035
36.47739	0.11665
36.58087	0.12309
36.69470	0.13339
36.80853	0.13548
36.90167	0.13451
37.00515	0.14562
37.09828	0.14127
37.18107	0.15141
37.25351	0.14578
37.33629	0.14208
37.40873	0.14144
37.48117	0.13258
37.54326	0.12598
37.60534	0.11295
37.66743	0.11439
37.72952	0.11552
37.80196	0.12759
37.87440	0.13065
37.95718	0.14095
38.03997	0.13371
38.11241	0.13500
38.20554	0.14562
38.27798	0.15962
38.36076	0.15206
38.45390	0.14578
38.54703	0.15302
38.62982	0.12985
38.70225	0.13468
38.79539	0.13097
38.85748	0.12325
38.92991	0.13548
38.99200	0.12663
39.04374	0.14031
39.09548	0.12952
39.14723	0.12228
39.19897	0.13307
39.24036	0.13419
39.28175	0.13210
39.31280	0.13580
39.35419	0.13387
39.39558	0.12888
39.42663	0.12727
39.46802	0.12711
39.49906	0.14514
39.53011	0.14691
39.56115	0.13677
39.59220	0.16960
39.61289	0.15463
39.64394	0.16445
39.67498	0.15158
39.70603	0.15367
39.72672	0.15673
39.76812	0.16252
39.79916	0.16027
39.83021	0.14948
39.87160	0.15560
39.91299	0.14465
39.95439	0.13146
39.99578	0.14321
40.03717	0.14594
40.07856	0.15061
40.11996	0.16316
40.17170	0.16300
40.22344	0.15689
40.26483	0.15367
40.30622	0.15850
40.34762	0.16413
40.39936	0.15640
40.46145	0.15962
40.52354	0.17105
40.58563	0.14272
40.64771	0.16413
40.70980	0.15914
40.78224	0.16107
40.85468	0.15335
40.92712	0.15431
40.99955	0.14224
41.08234	0.14562
41.15478	0.14803
41.23756	0.14964
41.32035	0.15817
41.41348	0.15737
41.50661	0.15785
41.59975	0.17234
41.67219	0.17089
41.76532	0.18167
41.85845	0.16864
41.95159	0.16590
42.05507	0.17298
42.14820	0.16252
42.25168	0.17250
42.35517	0.17298
42.45865	0.18184
42.55178	0.16381
42.65526	0.17491
42.74840	0.16413
42.85188	0.16333
42.95536	0.16944
43.05884	0.17266
43.15198	0.16526
43.25546	0.15769
43.35894	0.16590
43.45208	0.17121
43.53486	0.15560
43.61765	0.13725
43.69008	0.14417
43.76252	0.14465
43.82461	0.12534
43.88670	0.14256
43.95914	0.15077
44.01088	0.15125
44.05227	0.16011
44.09366	0.16123
44.13506	0.16960
44.16610	0.17363
44.20749	0.15447
44.24889	0.16606
44.27993	0.15769
44.32132	0.14482
44.36272	0.14723
44.40411	0.15544
44.44550	0.14015
44.48690	0.13564
44.52829	0.14771
44.58003	0.14739
44.63177	0.13773
44.68351	0.15592
44.73525	0.15689
44.80769	0.16429
44.88013	0.15978
44.94222	0.16477
44.99396	0.15914
45.06639	0.18167
45.12848	0.16188
45.19057	0.17137
45.26301	0.16590
45.33545	0.15866
45.40788	0.16236
45.49067	0.14546
45.56311	0.14981
45.65624	0.15769
45.73903	0.16172
45.81146	0.14578
45.91495	0.13725
46.01843	0.15093
46.12191	0.16333
46.21504	0.15834
46.31853	0.16526
46.39096	0.16606
46.45305	0.16622
46.50479	0.17604
46.56688	0.15962
46.61862	0.16944
46.67036	0.14610
46.73245	0.14514
46.79454	0.14803
46.86698	0.14610
46.92907	0.14884
47.00151	0.15335
47.06360	0.15447
47.12569	0.17314
47.19812	0.16316
47.26021	0.17153
47.32230	0.16316
47.38439	0.16526
47.46718	0.16783
47.54996	0.16397
47.62240	0.15238
47.67414	0.15544
47.74658	0.16300
47.81901	0.15528
47.87076	0.15061
47.92250	0.14047
47.96389	0.14916
48.01563	0.16284
48.06737	0.16848
48.11911	0.15914
48.17085	0.17813
48.23294	0.17588
48.29503	0.17588
48.36747	0.15657
48.41921	0.14820
48.48130	0.14707
48.54339	0.14304
48.60548	0.16848
48.66757	0.15158
48.72966	0.14417
48.80209	0.15158
48.86418	0.15978
48.92627	0.14449
48.98836	0.15801
49.05045	0.16091
49.11254	0.15721
49.17463	0.15528
49.24707	0.16526
49.31950	0.15640
49.38159	0.17797
49.43333	0.16188
49.49542	0.16091
49.55751	0.16156
49.61960	0.15721
49.68169	0.16896
49.75413	0.15319
49.81622	0.14385
49.87831	0.14916
49.94039	0.14079
50.00248	0.12727
50.06457	0.13290
50.12666	0.16139
50.20945	0.16365
50.29223	0.16477
50.39572	0.16011
50.49920	0.16992
50.61303	0.16107
50.72686	0.17121
50.86138	0.17314
50.98556	0.17942
51.07870	0.16960
51.18218	0.16139
51.27531	0.15061
51.37879	0.15640
51.47193	0.15383
51.56506	0.15882
51.65819	0.15077
51.75133	0.15479
51.85481	0.15174
51.95829	0.15528
52.06177	0.14530
52.15491	0.15383
52.23769	0.14675
52.34118	0.17153
52.43431	0.16268
52.52744	0.17025
52.62058	0.16268
52.71371	0.17073
52.79650	0.17170
52.87928	0.16992
52.97242	0.17846
53.06555	0.17234
53.15868	0.17540
53.23112	0.17266
53.31391	0.17057
53.38634	0.16075
53.45878	0.16268
53.53122	0.15093
53.60366	0.15592
53.65540	0.15286
53.70714	0.14964
53.74853	0.17153
53.77958	0.17089
53.82097	0.18248
53.86236	0.18940
53.89341	0.17121
53.92445	0.17009
53.95549	0.17604
53.99689	0.15528
54.03828	0.14900
54.07967	0.16123
54.11072	0.17186
54.15211	0.17846
54.18315	0.17717
54.22455	0.17797
54.26594	0.17089
54.30733	0.15995
54.34873	0.14900
54.39012	0.16268
54.44186	0.17572
54.48325	0.17717
54.53499	0.18715
54.58673	0.17218
54.64882	0.16172
54.69022	0.16477
54.73161	0.16107
54.77300	0.16365
54.81439	0.16654
54.85579	0.18232
54.89718	0.18860
54.93857	0.18393
54.96962	0.18264
55.01101	0.18602
55.05240	0.18908
55.09380	0.20131
55.13519	0.19793
55.17658	0.18345
55.22832	0.18119
55.28006	0.17588
55.32146	0.16751
55.36285	0.16992
55.40424	0.19133
55.45598	0.18071
55.51807	0.20002
55.58016	0.18602
55.64225	0.19391
55.71469	0.19986
55.78713	0.20357
55.85956	0.19841
55.94235	0.18087
56.01479	0.18779
56.09757	0.17781
56.19070	0.16864
56.28384	0.17733
56.37697	0.17121
56.47011	0.17524
56.57359	0.17781
56.67707	0.18715
56.79090	0.18425
56.92543	0.19230
57.01856	0.20357
57.13239	0.20582
57.23587	0.19439
57.34970	0.18506
57.44284	0.17878
57.53597	0.18940
57.63945	0.20357
57.73259	0.20711
57.84642	0.20614
57.93955	0.20711
58.04303	0.20598
58.13617	0.19165
58.23965	0.19986
58.35348	0.17669
58.43626	0.19552
58.50870	0.19809
58.57079	0.22143
58.63288	0.21467
58.69497	0.22449
58.75706	0.21692
58.81915	0.21258
58.88124	0.19455
58.93298	0.18860
58.97437	0.19552
59.02611	0.19890
59.06750	0.20276
59.11924	0.23334
59.18133	0.21870
59.23307	0.22417
59.28482	0.22626
59.34690	0.22481
59.39865	0.21290
59.46073	0.22175
59.51248	0.19455
59.57456	0.19101
59.63665	0.19536
59.71944	0.19922
59.80223	0.20582
59.89536	0.20373
59.96780	0.20646
60.05058	0.21016
60.13337	0.21387
60.21615	0.20743
60.28859	0.21403
60.38172	0.22707
60.48521	0.21982
60.57834	0.23222
60.66113	0.24010
60.75426	0.23205
60.83704	0.23994
60.93018	0.22143
61.01296	0.22916
61.11645	0.22642
61.20958	0.22465
61.28202	0.22208
61.34411	0.21580
61.39585	0.20888
61.44759	0.21258
61.50968	0.21886
61.57177	0.22851
61.63386	0.23077
61.69595	0.23576
61.75803	0.24831
61.82012	0.24284
61.89256	0.22867
61.96500	0.23801
62.04778	0.22546
62.12022	0.22642
62.20301	0.21515
62.28579	0.21821
62.35823	0.23865
62.44102	0.22594
62.51345	0.23222
62.59624	0.23946
62.66868	0.24525
62.75146	0.23109
62.82390	0.22867
62.90668	0.21628
62.98947	0.22610
63.07226	0.23205
63.14469	0.22932
63.22748	0.23544
63.32061	0.24252
63.42409	0.24912
63.50688	0.25765
63.58967	0.24107
63.66210	0.24493
63.74489	0.23334
63.81733	0.22707
63.87941	0.23318
63.95185	0.22385
64.01394	0.24268
64.07603	0.23882
64.12777	0.25266
64.18986	0.26537
64.25195	0.25588
64.31404	0.25716
64.37613	0.25411
64.43822	0.24187
64.50031	0.23769
64.57274	0.24992
64.64518	0.25234
64.71762	0.26795
64.81075	0.27278
64.90389	0.28582
64.99702	0.28115
65.09015	0.27068
65.16259	0.28308
65.25572	0.28372
65.34886	0.30545
65.44199	0.32943
65.54547	0.37885
65.65930	0.43535
65.77313	0.51357
65.89731	0.58536
66.02149	0.67920
66.14567	0.77078
66.25950	0.83517
66.37333	0.91259
66.49751	0.97681
66.61134	0.99773
66.72517	1.02220
66.84935	1.02027
66.95283	0.98518
67.05631	0.94961
67.15979	0.90937
67.26327	0.85480
67.35641	0.81183
67.47024	0.75356
67.57372	0.68451
67.69790	0.63461
67.81173	0.58262
67.94626	0.55848
68.11183	0.52500
68.29809	0.52001
68.46367	0.49522
68.63958	0.48444
68.77411	0.45756
68.87759	0.44693
68.97073	0.42521
69.04316	0.41217
69.11560	0.38303
69.18804	0.37965
69.26048	0.37643
69.32257	0.35535
69.37431	0.34473
69.43640	0.34231
69.48814	0.34505
69.53988	0.34392
69.59162	0.33330
69.64336	0.33249
69.69510	0.33249
69.74684	0.33201
69.80893	0.32509
69.88137	0.31720
69.95381	0.31141
70.03659	0.31125
70.11938	0.30191
70.20216	0.31865
70.30564	0.32750
70.44017	0.33330
70.57470	0.33845
70.72992	0.33410
70.87480	0.32992
71.04037	0.31205
71.22663	0.32557
71.41290	0.30223
71.61987	0.31720
71.78544	0.30851
71.97170	0.31044
72.16832	0.30980
72.38563	0.32316
72.64434	0.32090
72.91339	0.34585
73.19279	0.33426
73.46184	0.34070
73.67916	0.33459
73.73090	0.32847
73.81368	0.32171
73.90682	0.33265
73.97925	0.30239
74.04134	0.31978
74.10343	0.32171
74.16552	0.31962
74.21726	0.32042
74.26900	0.33410
74.33109	0.32879
74.41388	0.33620
74.49666	0.32927
74.58980	0.33378
74.68293	0.34521
74.78641	0.35261
74.86920	0.35535
74.97268	0.34939
75.07616	0.36935
75.17964	0.36147
75.29347	0.36130
75.42800	0.34537
75.57288	0.35438
75.74880	0.34167
75.93506	0.34473
76.10063	0.34585
76.22481	0.34698
76.34899	0.35277
76.48352	0.35293
76.61804	0.36002
76.77327	0.36726
76.93884	0.37724
77.10441	0.38609
77.26998	0.37434
77.46660	0.36098
77.65286	0.38497
77.83913	0.34988
78.04610	0.35358
78.24271	0.35873
78.46002	0.38448
78.61525	0.36984
78.78082	0.38175
78.95674	0.39092
79.11196	0.38625
79.25683	0.39736
79.41206	0.39221
79.55693	0.38947
79.69146	0.38432
79.85703	0.37821
80.01225	0.38336