Black Body Radiation Experiment Tue, Oct 30, 2018 3:27 PM
Sensor Position (Degrees)	Light Intensity (Volts)
0.00000	0.21741
0.00000	0.21757
0.00000	0.22320
0.00000	0.22063
0.00000	0.22191
0.00000	0.21709
0.00000	0.21354
0.00000	0.22127
0.00000	0.21564
0.00000	0.23994
0.00000	0.21306
0.00000	0.21161
0.00000	0.21660
0.00000	0.22884
0.00000	0.21580
0.00000	0.23511
0.00000	0.23737
0.00000	0.22304
0.00000	0.21000
0.00000	0.22014
0.00000	0.23012
0.00000	0.21451
0.00000	0.20839
0.00000	0.21242
0.00000	0.21242
0.00000	0.21033
0.00000	0.21499
0.00000	0.22143
0.00000	0.22916
0.00000	0.21483
0.00000	0.23125
0.01035	0.21483
0.01035	0.20823
0.01035	0.19745
0.02070	0.21757
0.04139	0.24059
0.05174	0.22079
0.07244	0.22465
0.11383	0.22063
0.19662	0.22835
0.37254	0.22690
0.54845	0.21966
0.72437	0.22787
0.88994	0.23125
1.02447	0.22916
1.12795	0.22707
1.26248	0.22546
1.39701	0.21274
1.49014	0.22047
1.55223	0.20067
1.60397	0.20791
1.64536	0.21596
1.67641	0.20904
1.70745	0.22127
1.72815	0.21161
1.76954	0.21435
1.80059	0.21886
1.85233	0.22851
1.90407	0.21789
1.96616	0.21548
2.02825	0.21354
2.10068	0.20614
2.18347	0.21226
2.26625	0.20566
2.35939	0.19439
2.45252	0.19858
2.59740	0.21966
2.69053	0.20035
2.78366	0.20984
2.88715	0.19697
2.98028	0.19455
3.06307	0.20340
3.12516	0.19310
3.18724	0.20405
3.25968	0.19922
3.31142	0.19938
3.36316	0.20823
3.42525	0.19938
3.46665	0.19101
3.51839	0.18666
3.58048	0.21564
3.63222	0.20984
3.67361	0.21306
3.70465	0.20823
3.75640	0.22240
3.80814	0.22030
3.85988	0.21966
3.91162	0.21435
3.96336	0.21210
4.01510	0.21902
4.06684	0.20260
4.11858	0.19648
4.18067	0.21097
4.22206	0.19970
4.26346	0.20308
4.31520	0.19922
4.35659	0.19294
4.39798	0.20276
4.44972	0.19841
4.50147	0.20035
4.53251	0.18586
4.58425	0.20856
4.64634	0.19407
4.68773	0.18940
4.73947	0.19342
4.79121	0.19503
4.84296	0.18312
4.89470	0.18248
4.97748	0.19632
5.06027	0.19632
5.13271	0.20775
5.19479	0.20389
5.27758	0.20501
5.35002	0.21403
5.42245	0.19503
5.50524	0.19342
5.57768	0.20389
5.67081	0.21548
5.75360	0.20743
5.83638	0.19890
5.90882	0.20019
5.98126	0.19890
6.05369	0.21532
6.12613	0.19777
6.19857	0.19825
6.23996	0.20421
6.30205	0.22240
6.35379	0.20485
6.40553	0.19922
6.45727	0.19198
6.50902	0.21387
6.56076	0.20485
6.61250	0.19294
6.66424	0.20308
6.71598	0.21081
6.77807	0.20469
6.82981	0.19825
6.90225	0.20582
6.98503	0.20534
7.04712	0.20566
7.12991	0.20984
7.22304	0.20437
7.31617	0.20276
7.41966	0.20035
7.50244	0.20357
7.57488	0.20115
7.64732	0.20196
7.70941	0.21725
7.77150	0.20517
7.82324	0.20163
7.86463	0.19391
7.89567	0.19520
7.93707	0.19970
7.95776	0.21644
7.98881	0.21805
8.00950	0.22047
8.04055	0.21210
8.06124	0.18489
8.08194	0.20324
8.10264	0.19809
8.13368	0.20196
8.16473	0.19713
8.19577	0.19085
8.23716	0.18699
8.26821	0.20566
8.29925	0.18779
8.34065	0.20984
8.37169	0.19713
8.42343	0.20501
8.46482	0.20212
8.51657	0.21306
8.55796	0.20839
8.62005	0.20904
8.67179	0.20888
8.72353	0.21081
8.77527	0.21177
8.83736	0.20212
8.89945	0.20872
8.97189	0.20775
9.03398	0.22030
9.10641	0.21161
9.17885	0.21129
9.24094	0.22562
9.31338	0.22369
9.38581	0.20856
9.45825	0.20968
9.53069	0.21419
9.59278	0.21371
9.66522	0.21290
9.72730	0.21451
9.79974	0.21258
9.86183	0.22224
9.91357	0.21226
9.98601	0.21258
10.03775	0.21548
10.11019	0.22658
10.18262	0.20534
10.24471	0.21870
10.30680	0.21741
10.35854	0.22739
10.39994	0.21532
10.45168	0.20630
10.49307	0.19520
10.53446	0.21499
10.57586	0.20469
10.61725	0.20839
10.64829	0.19986
10.66899	0.20324
10.70003	0.21145
10.72073	0.20582
10.74143	0.20324
10.76212	0.20067
10.78282	0.20517
10.79317	0.20550
10.81386	0.21371
10.84491	0.21242
10.86561	0.20534
10.88630	0.22111
10.91735	0.22047
10.93804	0.23721
10.96909	0.22964
11.00013	0.22739
11.03118	0.22771
11.06222	0.22658
11.10361	0.21934
11.13466	0.21113
11.16570	0.21789
11.19675	0.21322
11.22779	0.23109
11.25884	0.23157
11.28988	0.23576
11.32093	0.23544
11.36232	0.22851
11.39336	0.22481
11.42441	0.21692
11.46580	0.21918
11.50719	0.21081
11.54859	0.22932
11.58998	0.22996
11.64172	0.23560
11.69346	0.23656
11.74520	0.22336
11.80729	0.23672
11.86938	0.22304
11.92112	0.21886
11.97286	0.22481
12.03495	0.21773
12.09704	0.22884
12.15913	0.22320
12.22122	0.20421
12.27296	0.22626
12.34540	0.22707
12.40749	0.22723
12.46958	0.24912
12.54201	0.24799
12.62480	0.23704
12.69724	0.23383
12.76967	0.24364
12.85246	0.23849
12.94559	0.23495
13.02838	0.23592
13.12151	0.23769
13.21465	0.23399
13.30778	0.23511
13.40091	0.22835
13.47335	0.23318
13.57683	0.22642
13.66997	0.22996
13.76310	0.23093
13.85623	0.22385
13.98041	0.25749
14.08389	0.23608
14.21842	0.22964
14.34260	0.25443
14.45643	0.24896
14.57026	0.25797
14.69444	0.26087
14.82897	0.24670
14.94280	0.27326
15.01523	0.27036
15.10837	0.29950
15.11871	0.30497
15.17046	0.30336
15.23254	0.31608
15.28429	0.31913
15.34637	0.33314
15.38777	0.33845
15.44986	0.33475
15.51195	0.35631
15.55334	0.36823
15.60508	0.39173
15.64647	0.42279
15.69821	0.43100
15.76030	0.45353
15.82239	0.48540
15.87413	0.53031
15.93622	0.55301
15.99831	0.58954
16.06040	0.61836
16.13284	0.68773
16.20528	0.73585
16.28806	0.78141
16.35015	0.82680
16.42259	0.89375
16.50537	0.97359
16.57781	1.01528
16.65025	1.08916
16.71234	1.14324
16.78477	1.23354
16.84686	1.28633
16.89860	1.34492
16.97104	1.39804
17.04348	1.46902
17.11592	1.53405
17.18835	1.57171
17.27114	1.62499
17.34358	1.67988
17.40567	1.71625
17.48845	1.74313
17.57124	1.79368
17.64367	1.83182
17.72646	1.86450
17.79890	1.87512
17.84029	1.91713
17.88168	1.92904
17.93342	1.94884
17.97482	1.95174
18.00586	1.96333
18.04725	1.97636
18.07830	1.97556
18.10934	1.96993
18.15074	1.95399
18.18178	1.96542
18.21283	1.94514
18.24387	1.93580
18.28526	1.92099
18.32666	1.88848
18.35770	1.87190
18.40944	1.86804
18.45083	1.84711
18.49223	1.83343
18.54397	1.82973
18.58536	1.80687
18.62675	1.79094
18.66815	1.78354
18.70954	1.74185
18.76128	1.72784
18.81302	1.68889
18.84407	1.64946
18.88546	1.60519
18.92685	1.57896
18.97859	1.53405
19.01998	1.49993
19.07173	1.47578
19.11312	1.42765
19.16486	1.38436
19.20625	1.33655
19.26834	1.30838
19.32008	1.25012
19.37182	1.21245
19.42356	1.17769
19.46496	1.12006
19.51670	1.07886
19.56844	1.02139
19.62018	0.99484
19.67192	0.94446
19.73401	0.89408
19.79610	0.87396
19.84784	0.82165
19.89958	0.78833
19.95132	0.74245
19.99271	0.72636
20.03411	0.69497
20.08585	0.65425
20.11689	0.62705
20.16863	0.60419
20.19968	0.58101
20.23072	0.57361
20.26177	0.55365
20.31351	0.51615
20.35490	0.50295
20.40664	0.47317
20.44804	0.46271
20.49978	0.43486
20.54117	0.42424
20.58256	0.40138
20.62395	0.39317
20.66535	0.37692
20.70674	0.37660
20.74813	0.37338
20.78953	0.36629
20.83092	0.36324
20.87231	0.35422
20.91370	0.32090
20.96545	0.31752
21.00684	0.30304
21.03788	0.30207
21.07928	0.28791
21.12067	0.28678
21.16206	0.29966
21.19311	0.29161
21.22415	0.28742
21.26554	0.28421
21.29659	0.27889
21.32763	0.29354
21.36902	0.30078
21.40007	0.29048
21.44146	0.28227
21.49320	0.29177
21.52425	0.27326
21.56564	0.28582
21.60703	0.26843
21.63808	0.27165
21.67947	0.27117
21.72086	0.28614
21.76226	0.27117
21.81400	0.29048
21.85539	0.28083
21.89678	0.26666
21.93818	0.25620
21.98992	0.26328
22.05201	0.27020
22.10375	0.25604
22.16584	0.27567
22.23827	0.26425
22.31071	0.26763
22.37280	0.27873
22.44524	0.29145
22.51767	0.28002
22.60046	0.27761
22.68325	0.27873
22.77638	0.28034
22.87986	0.27809
23.00404	0.27986
23.09717	0.28227
23.21100	0.26392
23.33518	0.26473
23.45936	0.26779
23.59389	0.26570
23.71807	0.26425
23.84224	0.26924
23.94573	0.28034
24.04921	0.27986
24.15269	0.26602
24.24582	0.27777
24.34931	0.28163
24.44244	0.28646
24.53557	0.28324
24.62871	0.29145
24.74254	0.28742
24.84602	0.30272
24.92880	0.28533
25.01159	0.30304
25.11507	0.28839
25.18751	0.29306
25.25995	0.28984
25.33238	0.29097
25.41517	0.29274
25.47726	0.28823
25.54970	0.27600
25.61179	0.28276
25.65318	0.29789
25.71527	0.29000
25.77736	0.29467
25.81875	0.29612
25.87049	0.29161
25.93258	0.30078
25.98432	0.28903
26.03606	0.27181
26.06711	0.27342
26.11885	0.27825
26.14989	0.29080
26.18094	0.29161
26.21198	0.28710
26.24303	0.29435
26.27407	0.31463
26.29477	0.28469
26.32581	0.29644
26.34651	0.29676
26.37755	0.30593
26.40860	0.29193
26.42929	0.29064
26.46034	0.30690
26.49138	0.29193
26.53277	0.29644
26.57417	0.30207
26.61556	0.30336
26.66730	0.30931
26.71904	0.29934
26.77078	0.30368
26.83287	0.30867
26.90531	0.29708
26.97775	0.30577
27.06053	0.31511
27.15367	0.30368
27.24680	0.29193
27.32959	0.28936
27.40202	0.28260
27.50551	0.29853
27.59864	0.30191
27.70212	0.31624
27.79525	0.30803
27.88839	0.29869
27.99187	0.30642
28.10570	0.31286
28.19883	0.30304
28.30232	0.30078
28.39545	0.29080
28.49893	0.29418
28.60241	0.30127
28.70590	0.29467
28.80938	0.30674
28.91286	0.30771
29.02669	0.30642
29.11982	0.30787
29.23365	0.31575
29.34748	0.32284
29.47166	0.31028
29.58549	0.31060
29.69932	0.30529
29.80280	0.29177
29.89594	0.29821
29.98907	0.29708
30.08221	0.30384
30.18569	0.29274
30.27882	0.29338
30.36161	0.30497
30.43404	0.30497
30.50648	0.29451
30.56857	0.30384
30.63066	0.30416
30.70310	0.30690
30.75484	0.30626
30.81693	0.30883
30.87902	0.30336
30.93076	0.33024
31.00320	0.31881
31.06528	0.31656
31.12737	0.30883
31.18946	0.29676
31.25155	0.29515
31.30329	0.30674
31.36538	0.29773
31.42747	0.30095
31.47921	0.31286
31.54130	0.31253
31.59304	0.32943
31.64478	0.31012
31.69652	0.31366
31.74827	0.31720
31.80001	0.29097
31.85175	0.29708
31.90349	0.29950
31.95523	0.30980
32.01732	0.29934
32.06906	0.31205
32.12080	0.32638
32.18289	0.31173
32.23463	0.33233
32.29672	0.32316
32.35881	0.31302
32.43125	0.32734
32.50368	0.32364
32.57612	0.32766
32.63821	0.33491
32.68995	0.31752
32.74169	0.31044
32.78309	0.31318
32.82448	0.30078
32.85552	0.30593
32.90726	0.30674
32.92796	0.30738
32.96935	0.31640
33.00040	0.30771
33.03144	0.30674
33.07283	0.30948
33.10388	0.31543
33.14527	0.31060
33.18666	0.31302
33.22806	0.31205
33.26945	0.31270
33.32119	0.32573
33.36258	0.31768
33.40398	0.34231
33.46607	0.34473
33.50746	0.32943
33.56955	0.31913
33.62129	0.32976
33.68338	0.32235
33.73512	0.32847
33.78686	0.32074
33.84895	0.30754
33.91104	0.32815
33.97313	0.31527
34.03522	0.32879
34.09731	0.32509
34.15940	0.32316
34.21114	0.32219
34.27323	0.34231
34.33531	0.32879
34.40775	0.33684
34.49054	0.33475
34.57332	0.34456
34.65611	0.31833
34.74924	0.32525
34.83203	0.33523
34.90447	0.31221
34.97690	0.31913
35.03899	0.32638
35.10108	0.32219
35.17352	0.32943
35.23561	0.34135
35.29770	0.33298
35.35979	0.34569
35.42188	0.33394
35.48396	0.34424
35.54605	0.34070
35.60814	0.33780
35.68058	0.33716
35.73232	0.33394
35.79441	0.34328
35.85650	0.33475
35.91859	0.34279
35.99103	0.32670
36.05312	0.33974
36.11520	0.34698
36.19799	0.33201
36.27043	0.33877
36.35321	0.33040
36.43600	0.34167
36.50844	0.34634
36.57053	0.32879
36.65331	0.35068
36.73610	0.33217
36.83958	0.33764
36.93271	0.34167
37.03619	0.33249
37.13968	0.33941
37.25351	0.34038
37.34664	0.34376
37.46047	0.32847
37.57430	0.33603
37.67778	0.33845
37.80196	0.34167
37.89509	0.34312
37.99858	0.32541
38.09171	0.31913
38.17450	0.33104
38.25728	0.31913
38.34007	0.33700
38.41250	0.32412
38.48494	0.31672
38.55738	0.31704
38.61947	0.33571
38.69191	0.33169
38.77469	0.33185
38.84713	0.32831
38.92991	0.33265
39.01270	0.34183
39.08514	0.33298
39.16792	0.34698
39.24036	0.34070
39.31280	0.33732
39.38523	0.32927
39.45767	0.32638
39.53011	0.31575
39.60255	0.32074
39.66464	0.32123
39.73707	0.31881
39.80951	0.32412
39.89230	0.32654
39.97508	0.31157
40.03717	0.31270
40.10961	0.33153
40.18205	0.32895
40.24413	0.33169
40.29588	0.34440
40.34762	0.34795
40.39936	0.33668
40.46145	0.34167
40.51319	0.33603
40.57528	0.34440
40.62702	0.33925
40.68911	0.33201
40.75120	0.32267
40.80294	0.32670
40.86503	0.33056
40.92712	0.33298
40.99955	0.31736
41.07199	0.31994
41.14443	0.32461
41.22721	0.33346
41.28930	0.33523
41.37209	0.33024
41.46522	0.34054
41.54801	0.34972
41.65149	0.34617
41.77567	0.33925
41.88950	0.33442
42.03437	0.31881
42.15855	0.32412
42.29308	0.33603
42.41726	0.34102
42.56213	0.31157
42.68631	0.31688
42.83118	0.31704
42.98641	0.32605
43.15198	0.32960
43.29685	0.31946
43.45208	0.32251
43.60730	0.32058
43.76252	0.32718
43.91774	0.33523
44.05227	0.33507
44.18680	0.34086
44.34202	0.32718
44.50759	0.34553
44.65247	0.34617
44.77664	0.32879
44.90082	0.35036
45.01465	0.34601
45.12848	0.33137
45.23197	0.33764
45.31475	0.31624
45.39754	0.31447
45.46997	0.32348
45.55276	0.32058
45.62520	0.33893
45.69763	0.31527
45.78042	0.34279
45.86321	0.34424
45.95634	0.34456
46.04947	0.32992
46.13226	0.34199
46.21504	0.34054
46.29783	0.32992
46.38061	0.32783
46.46340	0.32267
46.54619	0.33137
46.62897	0.32702
46.71176	0.32605
46.78419	0.32654
46.86698	0.32090
46.96011	0.33008
47.04290	0.33780
47.13603	0.34537
47.21882	0.33974
47.30160	0.34376
47.39474	0.34054
47.47752	0.32927
47.56031	0.34215
47.61205	0.33330
47.67414	0.33603
47.73623	0.31640
47.81901	0.33330
47.88110	0.33169
47.95354	0.32251
48.02598	0.34360
48.07772	0.35261
48.15016	0.34778
48.21225	0.33797
48.28468	0.35583
48.34677	0.34312
48.39851	0.32219
48.47095	0.33668
48.53304	0.33764
48.59513	0.33040
48.66757	0.32960
48.74000	0.33346
48.81244	0.32766
48.87453	0.33426
48.94697	0.34859
49.00906	0.33459
49.07115	0.34183
49.13324	0.35599
49.19532	0.35068
49.25741	0.35310
49.31950	0.33909
49.39194	0.34247
49.46438	0.34360
49.53681	0.32493
49.62995	0.34778
49.73343	0.33555
49.80587	0.33024
49.90935	0.33281
50.01283	0.33700
50.09562	0.33201
50.20945	0.35052
50.30258	0.33748
50.40606	0.34650
50.48885	0.35052
50.57163	0.35213
50.64407	0.34006
50.71651	0.35599
50.79929	0.34746
50.88208	0.35229
50.96487	0.33893
51.06835	0.34022
51.16148	0.34682
51.25462	0.34489
51.34775	0.34199
51.43053	0.34038
51.52367	0.34038
51.60645	0.33442
51.68924	0.34585
51.79272	0.32831
51.89620	0.34231
51.99969	0.33636
52.13421	0.33845
52.24804	0.35406
52.36187	0.35277
52.47570	0.35149
52.59988	0.35712
52.70336	0.35487
52.80684	0.34344
52.89998	0.34795
52.98276	0.33459
53.05520	0.33636
53.13799	0.33587
53.22077	0.33394
53.29321	0.34199
53.36565	0.36291
53.43808	0.36452
53.51052	0.36211
53.58296	0.35535
53.65540	0.37241
53.73818	0.37370
53.81062	0.35953
53.89341	0.36179
53.96584	0.35986
54.03828	0.35953
54.13141	0.35213
54.21420	0.35487
54.29698	0.35631
54.36942	0.35100
54.45221	0.33459
54.52465	0.34569
54.60743	0.33442
54.70056	0.35261
54.79370	0.33941
54.86614	0.34939
54.93857	0.36066
55.01101	0.33523
55.07310	0.34811
55.13519	0.35873
55.18693	0.35293
55.24902	0.35760
55.30076	0.37563
55.33180	0.36356
55.38355	0.35825
55.42494	0.34778
55.46633	0.34843
55.49738	0.34875
55.53877	0.35310
55.58016	0.35342
55.62155	0.35133
55.66295	0.37531
55.70434	0.36098
55.75608	0.35004
55.79747	0.35342
55.84921	0.35728
55.91130	0.34617
55.97339	0.36211
56.03548	0.36871
56.09757	0.37193
56.17001	0.36935
56.23210	0.38126
56.30453	0.36935
56.38732	0.37289
56.47011	0.37837
56.56324	0.36259
56.64603	0.36002
56.74951	0.36066
56.85299	0.36629
56.95647	0.35229
57.05995	0.37000
57.16344	0.37112
57.26692	0.36935
57.34970	0.37273
57.46353	0.38609
57.57736	0.36388
57.70154	0.34972
57.80502	0.36919
57.91885	0.37273
58.02234	0.37531
58.14651	0.37804
58.25000	0.38062
58.35348	0.39092
58.44661	0.38319
58.53975	0.37788
58.66392	0.37595
58.77775	0.37096
58.90193	0.37000
59.01576	0.38030
59.11924	0.38159
59.23307	0.38126
59.36760	0.39945
59.46073	0.40138
59.55387	0.40331
59.65735	0.38915
59.74014	0.38384
59.83327	0.37418
59.91606	0.37917
59.99884	0.39977
60.08163	0.39205
60.15406	0.38770
60.21615	0.41024
60.26789	0.39832
60.32998	0.39334
60.39207	0.38754
60.46451	0.39140
60.52660	0.40299
60.60938	0.40171
60.68182	0.41152
60.76461	0.40702
60.84739	0.40090
60.93018	0.39060
61.02331	0.39430
61.10610	0.39752
61.17854	0.39334
61.27167	0.40074
61.34411	0.40734
61.42689	0.42939
61.48898	0.40669
61.56142	0.40525
61.62351	0.41265
61.69595	0.39977
61.76838	0.40138
61.84082	0.40444
61.91326	0.41442
61.99604	0.42762
62.06848	0.41120
62.14092	0.42311
62.21335	0.42971
62.28579	0.41667
62.35823	0.41426
62.42032	0.41297
62.47206	0.41748
62.51345	0.42279
62.56519	0.42311
62.59624	0.43100
62.62728	0.43760
62.64798	0.42424
62.67902	0.40830
62.71007	0.41748
62.74111	0.41748
62.77216	0.41635
62.79285	0.42778
62.82390	0.43985
62.86529	0.43438
62.89634	0.44227
62.94808	0.44484
62.99982	0.44452
63.05156	0.43068
63.10330	0.44516
63.16539	0.44983
63.22748	0.44259
63.28957	0.44291
63.35166	0.44323
63.43444	0.44742
63.51723	0.42971
63.58967	0.43132
63.67245	0.43470
63.77593	0.44146
63.85872	0.43502
63.94150	0.42343
64.03464	0.42907
64.12777	0.42311
64.20021	0.44388
64.29334	0.44211
64.39682	0.44774
64.50031	0.44307
64.59344	0.46319
64.68657	0.46126
64.75901	0.44661
64.85214	0.45724
64.93493	0.45015
65.02806	0.43760
65.11085	0.44452
65.19364	0.44983
65.26607	0.45257
65.34886	0.48331
65.41095	0.47188
65.47304	0.46786
65.54547	0.46995
65.60756	0.47172
65.66965	0.47011
65.74209	0.45901
65.80418	0.46013
65.86627	0.47462
65.92836	0.48106
65.99045	0.47591
66.06288	0.48927
66.11462	0.49393
66.18706	0.48267
66.23880	0.50617
66.30089	0.50311
66.36298	0.50021
66.42507	0.49731
66.48716	0.52468
66.54925	0.52468
66.62169	0.54029
66.67343	0.56299
66.74586	0.58037
66.80795	0.59775
66.87004	0.61691
66.94248	0.62946
67.00457	0.67453
67.06666	0.69835
67.12875	0.73360
67.18049	0.78028
67.23223	0.81070
67.29432	0.83678
67.34606	0.86865
67.38745	0.91452
67.43919	0.94092
67.48059	0.95428
67.53233	0.99806
67.58407	0.99451
67.62546	1.01882
67.67720	1.03234
67.71860	1.03685
67.77034	1.05455
67.82208	1.06003
67.88417	1.04473
67.94626	1.05214
68.00834	1.03379
68.07043	1.02365
68.14287	0.99741
68.21531	0.96812
68.27740	0.92788
68.36018	0.88458
68.44297	0.85110
68.53610	0.81633
68.61889	0.78221
68.71202	0.75259
68.80516	0.70270
68.90864	0.68950
69.00177	0.65859
69.09491	0.64073
69.20874	0.62109
69.30187	0.59791
69.40535	0.59325
69.48814	0.57763
69.58127	0.57956
69.65371	0.56476
69.72615	0.56958
69.78823	0.55558
69.85032	0.54270
69.92276	0.54158
69.98485	0.52210
70.05729	0.51888
70.11938	0.51711
70.18147	0.53530
70.23321	0.52645
70.29530	0.53385
70.35739	0.52387
70.40913	0.53256
70.46087	0.51647
70.51261	0.49570
70.58505	0.51277
70.64713	0.50102
70.71957	0.49908
70.79201	0.50826
70.87480	0.50745
70.95758	0.52967
71.05071	0.51663
71.15420	0.52757
71.27837	0.51647
71.39220	0.50745
71.49569	0.49844
71.63021	0.50134
71.77509	0.50568
71.90961	0.51244
72.05449	0.50987
72.23041	0.50552
72.39598	0.51566
72.57190	0.50939
72.76851	0.50842
72.94443	0.52210
73.14105	0.52017
73.33767	0.51051
73.56533	0.51695
73.77229	0.52629
74.02065	0.52757
74.27935	0.53997
74.51736	0.51824
74.71398	0.51325
74.90024	0.52661
75.05547	0.50633
75.20034	0.51695
75.31417	0.51454
75.43835	0.51470
75.56253	0.52951
75.70740	0.51953
75.86263	0.54190
76.02820	0.52291
76.24551	0.52001
76.49387	0.52951
76.78362	0.52870
77.13545	0.53240
77.45625	0.54013
77.68391	0.52918
77.94261	0.54383
78.22201	0.54287
78.50142	0.54480
78.70838	0.56073
78.90500	0.55429
79.08091	0.55478
79.28788	0.55574
79.53624	0.54254
79.74320	0.55623
79.99156	0.55252
80.19852	0.55510